Typical Measured Spectrum of Semrock NF01-532U Optical Filter	
For wavelengths between 320 and 1120 nm, values near or below 3e-7 (Optical Density 6.5) are measurement noise limited.
For wavelengths < 320 nm and > 1120 nm, values near or below 3e-6 (Optical Density 5.5) are measurement noise limited. 
Data format:  Wavelength (nm) <tab> Transmission (0 to 1)
301.8	0.05431
302	0.05755
302.2	0.06035
302.4	0.06473
302.6	0.06826
302.8	0.07355
303	0.07689
303.2	0.08047
303.4	0.08347
303.6	0.08674
303.8	0.09055
304	0.09288
304.2	0.09734
304.4	0.10167
304.6	0.10779
304.8	0.11426
305	0.11915
305.2	0.12284
305.4	0.12734
305.6	0.13074
305.8	0.13528
306	0.14021
306.2	0.14486
306.4	0.15185
306.6	0.15417
306.8	0.15388
307	0.16001
307.2	0.16449
307.4	0.16656
307.6	0.17264
307.8	0.17829
308	0.17953
308.2	0.18824
308.4	0.19281
308.6	0.19033
308.8	0.19427
309	0.20197
309.2	0.203
309.4	0.20734
309.6	0.21392
309.8	0.21424
310	0.22129
310.2	0.23346
310.4	0.23333
310.6	0.23321
310.8	0.24092
311	0.24092
311.2	0.2397
311.4	0.24717
311.6	0.25003
311.8	0.25181
312	0.26205
312.2	0.26491
312.4	0.25657
312.6	0.2631
312.8	0.27228
313	0.27434
313.2	0.27942
313.4	0.2884
313.6	0.28949
313.8	0.29244
314	0.30506
314.2	0.29603
314.4	0.28573
314.6	0.29516
314.8	0.30124
315	0.29617
315.2	0.30553
315.4	0.31392
315.6	0.3063
315.8	0.31099
316	0.32466
316.2	0.31665
316.4	0.30661
316.6	0.32389
316.8	0.33278
317	0.31899
317.2	0.3245
317.4	0.34317
317.6	0.33688
317.8	0.32625
318	0.34403
318.2	0.34334
318.4	0.32224
318.6	0.33012
318.8	0.35406
319	0.34469
319.2	0.33839
319.4	0.35893
319.6	0.36426
319.8	0.3478
320	0.35295
320.2	0.37362
320.4	0.36756
320.6	0.35641
320.8	0.36762
321	0.36702
321.2	0.35612
321.4	0.37078
321.6	0.38801
321.8	0.37051
322	0.36005
322.2	0.38524
322.4	0.39054
322.6	0.36796
322.8	0.37377
323	0.39684
323.2	0.37453
323.4	0.35269
323.6	0.38433
323.8	0.40726
324	0.36592
324.2	0.35015
324.4	0.3933
324.6	0.39968
324.8	0.35555
325	0.36086
325.2	0.40422
325.4	0.37976
325.6	0.33201
325.8	0.36168
326	0.41312
326.2	0.37624
326.4	0.34043
326.6	0.3905
326.8	0.42433
327	0.35717
327.2	0.32248
327.4	0.3867
327.6	0.42921
327.8	0.35604
328	0.33046
328.2	0.40629
328.4	0.43544
328.6	0.36527
328.8	0.35728
329	0.43346
329.2	0.42902
329.4	0.34617
329.6	0.3505
329.8	0.43978
330	0.4282
330.2	0.34565
330.4	0.35545
330.6	0.44948
330.8	0.45193
331	0.38176
331.2	0.40262
331.4	0.47638
331.6	0.43606
331.8	0.37174
332	0.41172
332.2	0.48127
332.4	0.4219
332.6	0.35329
332.8	0.40158
333	0.48913
333.2	0.44144
333.4	0.37729
333.6	0.42331
333.8	0.49656
334	0.44185
334.2	0.38375
334.4	0.4434
334.6	0.50942
334.8	0.44318
335	0.38765
335.2	0.45024
335.4	0.51596
335.6	0.44728
335.8	0.39161
336	0.45609
336.2	0.52338
336.4	0.45903
336.6	0.4105
336.8	0.46305
337	0.53199
337.2	0.48602
337.4	0.41308
337.6	0.45545
337.8	0.54251
338	0.50333
338.2	0.43807
338.4	0.48595
338.6	0.55413
338.8	0.48173
339	0.41338
339.2	0.47121
339.4	0.55165
339.6	0.48523
339.8	0.41485
340	0.46823
340.2	0.5664
340.4	0.52508
340.6	0.47099
340.8	0.52806
341	0.57785
341.2	0.50747
341.4	0.47054
341.6	0.54286
341.8	0.57206
342	0.49036
342.2	0.48395
342.4	0.5678
342.6	0.51172
342.8	0.38324
343	0.38065
343.2	0.49241
343.4	0.49391
343.6	0.39973
343.8	0.42526
344	0.52875
344.2	0.44305
344.4	0.33826
344.6	0.40093
344.8	0.51319
345	0.4038
345.2	0.31191
345.4	0.41353
345.6	0.46211
345.8	0.27967
346	0.21115
346.2	0.34419
346.4	0.42532
346.6	0.25289
346.8	0.20818
347	0.2508
347.2	0.43093
347.4	0.28915
347.6	0.15508
347.8	0.22527
348	0.39178
348.2	0.22802
348.4	0.13121
348.6	0.23269
348.8	0.35331
349	0.20637
349.2	0.20023
349.4	0.34942
349.6	0.22206
349.8	0.12639
350	0.23317
350.2	0.27736
350.4	0.13977
350.6	0.16562
350.8	0.25645
351	0.15374
351.2	0.16235
351.4	0.27303
351.6	0.17313
351.8	0.19288
352	0.25641
352.2	0.14369
352.4	0.15113
352.6	0.14102
352.8	0.15394
353	0.19002
353.2	0.07333
353.4	0.04537
353.6	0.00795
353.8	0.004
354	0.00241
354.2	0.00197
354.4	0.00183
354.6	0.00159
354.8	0.00147
355	0.00136
355.2	0.00114
355.4	0.00109
355.6	0.00103
355.8	0.0008645
356	0.00084552
356.2	0.00086973
356.4	0.00082753
356.6	0.00078936
356.8	0.00073276
357	0.00070577
357.2	0.00070725
357.4	0.00064194
357.6	0.00069119
357.8	0.00062166
358	0.00062636
358.2	0.00058109
358.4	0.00059327
358.6	0.00055379
358.8	0.00057308
359	0.0005744
359.2	0.00056204
359.4	0.000542
359.6	0.00050352
359.8	0.00046742
360	0.00051589
360.2	0.00049864
360.4	0.00051466
360.6	0.00050063
360.8	0.00047648
361	0.00050707
361.2	0.000488
361.4	0.00043066
361.6	0.00037971
361.8	0.00040502
362	0.00041157
362.2	0.00040109
362.4	0.00037848
362.6	0.00035477
362.8	0.00037253
363	0.00034353
363.2	0.00035052
363.4	0.00033257
363.6	0.00040464
363.8	0.00036453
364	0.000402
364.2	0.00042564
364.4	0.00042503
364.6	0.000464
364.8	0.00045041
365	0.00045033
365.2	0.00042694
365.4	0.00049276
365.6	0.00044823
365.8	0.0003655
366	0.00043472
366.2	0.00038609
366.4	0.00042934
366.6	0.00040793
366.8	0.00135
367	0.00227
367.2	0.00232
367.4	0.00232
367.6	0.00239
367.8	0.00241
368	0.00247
368.2	0.00242
368.4	0.00243
368.6	0.00252
368.8	0.00245
369	0.00249
369.2	0.00249
369.4	0.00253
369.6	0.00249
369.8	0.00251
370	0.00254
370.2	0.00254
370.4	0.00258
370.6	0.00265
370.8	0.00265
371	0.00269
371.2	0.00266
371.4	0.00278
371.6	0.00268
371.8	0.0027
372	0.00266
372.2	0.00278
372.4	0.00268
372.6	0.00281
372.8	0.00271
373	0.00287
373.2	0.00282
373.4	0.00285
373.6	0.00287
373.8	0.00291
374	0.00289
374.2	0.00294
374.4	0.00295
374.6	0.00297
374.8	0.00293
375	0.00297
375.2	0.003
375.4	0.00301
375.6	0.003
375.8	0.00293
376	0.00299
376.2	0.00297
376.4	0.00302
376.6	0.00296
376.8	0.00307
377	0.00305
377.2	0.00305
377.4	0.00311
377.6	0.003
377.8	0.00308
378	0.00307
378.2	0.00304
378.4	0.00308
378.6	0.00312
378.8	0.00302
379	0.00308
379.2	0.00311
379.4	0.00312
379.6	0.00304
379.8	0.00313
380	0.00316
380.2	0.00315
380.4	0.00312
380.6	0.00315
380.8	0.00319
381	0.00317
381.2	0.00325
381.4	0.00324
381.6	0.00335
381.8	0.00341
382	0.00494
382.2	0.00657
382.4	0.0212
382.6	0.04115
382.8	0.06162
383	0.10506
383.2	0.03321
383.4	0.05272
383.6	0.2709
383.8	0.24176
384	0.20701
384.2	0.33396
384.4	0.29792
384.6	0.25656
384.8	0.33597
385	0.42006
385.2	0.36237
385.4	0.28368
385.6	0.29264
385.8	0.40043
386	0.46755
386.2	0.39131
386.4	0.3645
386.6	0.46768
386.8	0.45552
387	0.54124
387.2	0.42701
387.4	0.34725
387.6	0.4188
387.8	0.54967
388	0.45878
388.2	0.30622
388.4	0.27835
388.6	0.39654
388.8	0.62413
389	0.57977
389.2	0.39351
389.4	0.36237
389.6	0.50716
389.8	0.69148
390	0.58661
390.2	0.3936
390.4	0.3564
390.6	0.47882
390.8	0.69598
391	0.64048
391.2	0.41382
391.4	0.35595
391.6	0.447
391.8	0.68377
392	0.77712
392.2	0.59092
392.4	0.45204
392.6	0.46347
392.8	0.62101
393	0.82283
393.2	0.74897
393.4	0.53588
393.6	0.44316
393.8	0.48198
394	0.63753
394.2	0.84113
394.4	0.83527
394.6	0.67406
394.8	0.58539
395	0.61634
395.2	0.7496
395.4	0.89898
395.6	0.89236
395.8	0.80947
396	0.77117
396.2	0.81602
396.4	0.89515
396.6	0.9283
396.8	0.88872
397	0.83615
397.2	0.82697
397.4	0.86733
397.6	0.92342
397.8	0.9461
398	0.92864
398.2	0.90507
398.4	0.90055
398.6	0.91892
398.8	0.9371
399	0.94242
399.2	0.9349
399.4	0.93057
399.6	0.92916
399.8	0.93079
400	0.92616
400.2	0.9161
400.4	0.91053
400.6	0.9181
400.8	0.9334
401	0.94547
401.2	0.94405
401.4	0.93682
401.6	0.93496
401.8	0.9432
402	0.95435
402.2	0.95913
402.4	0.9527
402.6	0.93729
402.8	0.93084
403	0.94082
403.2	0.95585
403.4	0.96098
403.6	0.94813
403.8	0.92808
404	0.91666
404.2	0.92212
404.4	0.9425
404.6	0.95939
404.8	0.96031
405	0.94674
405.2	0.93056
405.4	0.92828
405.6	0.93993
405.8	0.95743
406	0.96526
406.2	0.95509
406.4	0.93809
406.6	0.92805
406.8	0.93309
407	0.95111
407.2	0.96423
407.4	0.96286
407.6	0.94897
407.8	0.93604
408	0.9347
408.2	0.94692
408.4	0.9637
408.6	0.96729
408.8	0.95823
409	0.94341
409.2	0.93474
409.4	0.94113
409.6	0.95509
409.8	0.96815
410	0.9642
410.2	0.94804
410.4	0.93289
410.6	0.92852
410.8	0.93846
411	0.95424
411.2	0.96289
411.4	0.95631
411.6	0.94066
411.8	0.92574
412	0.92512
412.2	0.93792
412.4	0.95717
412.6	0.96764
412.8	0.96279
413	0.95084
413.2	0.93763
413.4	0.93675
413.6	0.94836
413.8	0.96177
414	0.96542
414.2	0.95274
414.4	0.935
414.6	0.92226
414.8	0.92516
415	0.93908
415.2	0.95439
415.4	0.95555
415.6	0.94012
415.8	0.91845
416	0.90326
416.2	0.90378
416.4	0.92125
416.6	0.94615
416.8	0.96365
417	0.96499
417.2	0.95071
417.4	0.93521
417.6	0.93074
417.8	0.93844
418	0.95293
418.2	0.96391
418.4	0.96083
418.6	0.94593
418.8	0.92815
419	0.91949
419.2	0.92471
419.4	0.94119
419.6	0.95397
419.8	0.95617
420	0.93993
420.2	0.91966
420.4	0.90541
420.6	0.90468
420.8	0.92007
421	0.94131
421.2	0.95566
421.4	0.95664
421.6	0.94473
421.8	0.93035
422	0.92303
422.2	0.92679
422.4	0.93952
422.6	0.95355
422.8	0.9552
423	0.94666
423.2	0.93303
423.4	0.921
423.6	0.9199
423.8	0.92826
424	0.94135
424.2	0.95144
424.4	0.95351
424.6	0.94662
424.8	0.93338
425	0.92334
425.2	0.91941
425.4	0.92307
425.6	0.93001
425.8	0.9348
426	0.93311
426.2	0.9308
426.4	0.93005
426.6	0.93249
426.8	0.9386
427	0.94626
427.2	0.94982
427.4	0.94755
427.6	0.9422
427.8	0.93746
428	0.93828
428.2	0.94466
428.4	0.95464
428.6	0.96111
428.8	0.9605
429	0.95338
429.2	0.94517
429.4	0.93962
429.6	0.94327
429.8	0.95199
430	0.96275
430.2	0.97002
430.4	0.96756
430.6	0.9581
430.8	0.94742
431	0.94154
431.2	0.94414
431.4	0.95467
431.6	0.96637
431.8	0.97228
432	0.96931
432.2	0.9564
432.4	0.94304
432.6	0.93396
432.8	0.93761
433	0.95057
433.2	0.96482
433.4	0.97288
433.6	0.97187
433.8	0.96024
434	0.94925
434.2	0.94329
434.4	0.94531
434.6	0.95594
434.8	0.96899
435	0.97764
435.2	0.97583
435.4	0.96565
435.6	0.9535
435.8	0.94498
436	0.94703
436.2	0.95701
436.4	0.97071
436.6	0.98017
436.8	0.97886
437	0.96481
437.2	0.94899
437.4	0.93582
437.6	0.93477
437.8	0.94386
438	0.9606
438.2	0.97561
438.4	0.98191
438.6	0.97621
438.8	0.96298
439	0.95119
439.2	0.94801
439.4	0.95339
439.6	0.96749
439.8	0.97747
440	0.98304
440.2	0.97754
440.4	0.96542
440.6	0.95274
440.8	0.94733
441	0.94965
441.2	0.96367
441.4	0.97696
441.6	0.98432
441.8	0.97877
442	0.96499
442.2	0.94735
442.4	0.93602
442.6	0.93511
442.8	0.94637
443	0.96364
443.2	0.97841
443.4	0.98375
443.6	0.97582
443.8	0.95953
444	0.94068
444.2	0.93268
444.4	0.93856
444.6	0.95375
444.8	0.97216
445	0.98215
445.2	0.98115
445.4	0.96839
445.6	0.95145
445.8	0.93589
446	0.93366
446.2	0.94166
446.4	0.95874
446.6	0.97569
446.8	0.9844
447	0.97993
447.2	0.96352
447.4	0.94499
447.6	0.93176
447.8	0.93087
448	0.94253
448.2	0.96103
448.4	0.97906
448.6	0.98474
448.8	0.97672
449	0.95795
449.2	0.93892
449.4	0.92729
449.6	0.928
449.8	0.94528
450	0.96513
450.2	0.9815
450.4	0.98496
450.6	0.97435
450.8	0.95388
451	0.93438
451.2	0.92639
451.4	0.92814
451.6	0.942
451.8	0.96344
452	0.98019
452.2	0.98445
452.4	0.97521
452.6	0.95582
452.8	0.93494
453	0.92207
453.2	0.92245
453.4	0.93494
453.6	0.95477
453.8	0.97328
454	0.98338
454.2	0.97988
454.4	0.96449
454.6	0.94565
454.8	0.93171
455	0.92959
455.2	0.93834
455.4	0.95503
455.6	0.97713
455.8	0.98573
456	0.98288
456.2	0.96762
456.4	0.95119
456.6	0.93754
456.8	0.93393
457	0.94231
457.2	0.95676
457.4	0.97418
457.6	0.98399
457.8	0.98305
458	0.97231
458.2	0.95626
458.4	0.94227
458.6	0.93534
458.8	0.93975
459	0.95097
459.2	0.96766
459.4	0.97975
459.6	0.98283
459.8	0.97563
460	0.96124
460.2	0.94953
460.4	0.9427
460.6	0.9445
460.8	0.95505
461	0.96979
461.2	0.98337
461.4	0.9848
461.6	0.97655
461.8	0.96086
462	0.94422
462.2	0.9335
462.4	0.93198
462.6	0.94034
462.8	0.95464
463	0.97071
463.2	0.98
463.4	0.98005
463.6	0.97002
463.8	0.95559
464	0.9417
464.2	0.93481
464.4	0.93765
464.6	0.94908
464.8	0.96459
465	0.97605
465.2	0.98255
465.4	0.9789
465.6	0.96926
465.8	0.9574
466	0.94793
466.2	0.94622
466.4	0.95183
466.6	0.96397
466.8	0.97558
467	0.9836
467.2	0.98154
467.4	0.97079
467.6	0.95629
467.8	0.94391
468	0.93873
468.2	0.9415
468.4	0.95248
468.6	0.96665
468.8	0.97917
469	0.9846
469.2	0.98082
469.4	0.96913
469.6	0.95507
469.8	0.94356
470	0.93826
470.2	0.94225
470.4	0.95327
470.6	0.96633
470.8	0.97877
471	0.98367
471.2	0.9806
471.4	0.96999
471.6	0.95772
471.8	0.94952
472	0.94718
472.2	0.95304
472.4	0.96304
472.6	0.97563
472.8	0.98239
473	0.98183
473.2	0.97302
473.4	0.95833
473.6	0.94374
473.8	0.93399
474	0.93304
474.2	0.94008
474.4	0.95359
474.6	0.96903
474.8	0.98004
475	0.98304
475.2	0.97744
475.4	0.96442
475.6	0.949
475.8	0.93843
476	0.93502
476.2	0.94071
476.4	0.95127
476.6	0.96681
476.8	0.97924
477	0.98408
477.2	0.98089
477.4	0.97098
477.6	0.95896
477.8	0.94909
478	0.94419
478.2	0.94715
478.4	0.96034
478.6	0.97282
478.8	0.98327
479	0.9858
479.2	0.97991
479.4	0.96861
479.6	0.95412
479.8	0.94212
480	0.93588
480.2	0.93861
480.4	0.94806
480.6	0.96214
480.8	0.97479
481	0.98354
481.2	0.98293
481.4	0.97487
481.6	0.96248
481.8	0.94947
482	0.94132
482.2	0.93929
482.4	0.94465
482.6	0.95757
482.8	0.97074
483	0.98073
483.2	0.98288
483.4	0.97691
483.6	0.96466
483.8	0.95056
484	0.93826
484.2	0.93299
484.4	0.93591
484.6	0.94505
484.8	0.95979
485	0.9726
485.2	0.98062
485.4	0.98075
485.6	0.9715
485.8	0.95744
486	0.94371
486.2	0.93441
486.4	0.93236
486.6	0.93608
486.8	0.94688
487	0.96023
487.2	0.97119
487.4	0.97737
487.6	0.97595
487.8	0.96865
488	0.95745
488.2	0.94671
488.4	0.94012
488.6	0.94056
488.8	0.94648
489	0.95632
489.2	0.96772
489.4	0.97587
489.6	0.97797
489.8	0.97269
490	0.96258
490.2	0.94966
490.4	0.93918
490.6	0.93526
490.8	0.93627
491	0.94285
491.2	0.9541
491.4	0.96514
491.6	0.97354
491.8	0.97618
492	0.97244
492.2	0.96445
492.4	0.95462
492.6	0.94684
492.8	0.94236
493	0.94412
493.2	0.95
493.4	0.95812
493.6	0.96716
493.8	0.97314
494	0.9748
494.2	0.97142
494.4	0.96496
494.6	0.95783
494.8	0.95278
495	0.95013
495.2	0.95149
495.4	0.95862
495.6	0.96551
495.8	0.97105
496	0.97456
496.2	0.97186
496.4	0.96659
496.6	0.95995
496.8	0.95191
497	0.94746
497.2	0.9468
497.4	0.9511
497.6	0.95809
497.8	0.96558
498	0.97109
498.2	0.97435
498.4	0.9731
498.6	0.96813
498.8	0.96137
499	0.95457
499.2	0.95167
499.4	0.95079
499.6	0.95395
499.8	0.95916
500	0.96567
500.2	0.97272
500.4	0.97578
500.6	0.97493
500.8	0.9717
501	0.965
501.2	0.95896
501.4	0.95621
501.6	0.95536
501.8	0.95837
502	0.96331
502.2	0.96773
502.4	0.97183
502.6	0.97258
502.8	0.96989
503	0.96526
503.2	0.95875
503.4	0.95357
503.6	0.95101
503.8	0.95207
504	0.95659
504.2	0.96269
504.4	0.9695
504.6	0.9736
504.8	0.97563
505	0.97362
505.2	0.9679
505.4	0.9634
505.6	0.9579
505.8	0.95511
506	0.9549
506.2	0.95862
506.4	0.9637
506.6	0.96999
506.8	0.97467
507	0.97589
507.2	0.97318
507.4	0.96815
507.6	0.96206
507.8	0.95563
508	0.9523
508.2	0.95253
508.4	0.95603
508.6	0.96227
508.8	0.96826
509	0.97396
509.2	0.97626
509.4	0.97522
509.6	0.97142
509.8	0.96541
510	0.96029
510.2	0.95813
510.4	0.95834
510.6	0.96107
510.8	0.96664
511	0.97134
511.2	0.9751
511.4	0.97555
511.6	0.97248
511.8	0.96667
512	0.95964
512.2	0.95373
512.4	0.95083
512.6	0.95221
512.8	0.95796
513	0.9666
513.2	0.9756
513.4	0.98309
513.6	0.98512
513.8	0.98415
514	0.97788
514.2	0.97046
514.4	0.96302
514.6	0.95829
514.8	0.9573
515	0.96001
515.2	0.96443
515.4	0.96923
515.6	0.97123
515.8	0.97061
516	0.96537
516.2	0.95867
516.4	0.9526
516.6	0.94967
516.8	0.95194
517	0.95874
517.2	0.96952
517.4	0.97933
517.6	0.98588
517.8	0.98551
518	0.97921
518.2	0.9674
518.4	0.9528
518.6	0.94216
518.8	0.93787
519	0.94164
519.2	0.95263
519.4	0.96966
519.6	0.98369
519.8	0.98783
520	0.98169
520.2	0.96742
520.4	0.95187
520.6	0.94094
520.8	0.93902
521	0.94471
521.2	0.95449
521.4	0.96086
521.6	0.95547
521.8	0.93502
522	0.90421
522.2	0.87141
522.4	0.8358
522.6	0.78863
522.8	0.70916
523	0.58513
523.2	0.4346
523.4	0.29621
523.6	0.18772
523.8	0.108
524	0.06041
524.2	0.03169
524.4	0.01595
524.6	0.008
524.8	0.00411
525	0.0022
525.2	0.00101
525.4	0.00054858
525.6	0.00030875
525.8	0.00018321
526	0.00011339
526.2	7.2872E-05
526.4	4.6577E-05
526.6	2.9903E-05
526.8	2.0474E-05
527	1.4019E-05
527.2	1.0137E-05
527.4	7.3831E-06
527.6	5.4649E-06
527.8	4.1557E-06
528	3.2251E-06
528.2	2.6014E-06
528.4	2.0983E-06
528.6	1.6965E-06
528.8	1.3724E-06
529	1.1541E-06
529.2	1.0562E-06
529.4	9.7767E-07
529.6	9.3086E-07
529.8	8.8628E-07
530	8.2119E-07
530.2	7.549E-07
530.4	6.8357E-07
530.6	5.9364E-07
530.8	5.2768E-07
531	5.0492E-07
531.2	4.8314E-07
531.4	4.8439E-07
531.6	4.9431E-07
531.8	4.9871E-07
532	4.8197E-07
532.2	4.7467E-07
532.4	5.1094E-07
532.6	5.4999E-07
532.8	5.8071E-07
533	6.0707E-07
533.2	6.3353E-07
533.4	6.5442E-07
533.6	6.8341E-07
533.8	7.5577E-07
534	8.3579E-07
534.2	9.3322E-07
534.4	1.0475E-06
534.6	1.1719E-06
534.8	1.2823E-06
535	1.4179E-06
535.2	1.7236E-06
535.4	2.0953E-06
535.6	2.606E-06
535.8	3.2939E-06
536	4.1711E-06
536.2	5.412E-06
536.4	7.0364E-06
536.6	9.6835E-06
536.8	1.3326E-05
537	1.9007E-05
537.2	2.8017E-05
537.4	4.1321E-05
537.6	6.7851E-05
537.8	0.00010878
538	0.00017218
538.2	0.00028627
538.4	0.00050103
538.6	0.00090061
538.8	0.0017
539	0.00332
539.2	0.00602
539.4	0.0119
539.6	0.02318
539.8	0.04255
540	0.07285
540.2	0.11725
540.4	0.18475
540.6	0.28625
540.8	0.44657
541	0.64928
541.2	0.81426
541.4	0.88168
541.6	0.87221
541.8	0.8506
542	0.85174
542.2	0.8771
542.4	0.91851
542.6	0.9561
542.8	0.97803
543	0.97518
543.2	0.95452
543.4	0.9289
543.6	0.91086
543.8	0.90391
544	0.91084
544.2	0.92706
544.4	0.94681
544.6	0.96364
544.8	0.97238
545	0.96894
545.2	0.95785
545.4	0.94319
545.6	0.93057
545.8	0.92354
546	0.92451
546.2	0.93182
546.4	0.94413
546.6	0.95914
546.8	0.97325
547	0.98282
547.2	0.98526
547.4	0.98231
547.6	0.97548
547.8	0.9678
548	0.96177
548.2	0.95902
548.4	0.95894
548.6	0.96371
548.8	0.96887
549	0.97384
549.2	0.97659
549.4	0.97505
549.6	0.97012
549.8	0.96168
550	0.95271
550.2	0.94533
550.4	0.9405
550.6	0.93992
550.8	0.94358
551	0.95059
551.2	0.95997
551.4	0.96971
551.6	0.97744
551.8	0.98184
552	0.98304
552.2	0.97968
552.4	0.97334
552.6	0.96691
552.8	0.96038
553	0.95682
553.2	0.95571
553.4	0.95867
553.6	0.9643
553.8	0.9709
554	0.97843
554.2	0.98397
554.4	0.98637
554.6	0.98531
554.8	0.98101
555	0.97505
555.2	0.96772
555.4	0.96119
555.6	0.95703
555.8	0.95574
556	0.9576
556.2	0.96339
556.4	0.97038
556.6	0.97759
556.8	0.98301
557	0.98587
557.2	0.98507
557.4	0.98095
557.6	0.97467
557.8	0.96677
558	0.95823
558.2	0.95148
558.4	0.94827
558.6	0.9476
558.8	0.95096
559	0.9571
559.2	0.96493
559.4	0.97268
559.6	0.97933
559.8	0.98398
560	0.98486
560.2	0.98298
560.4	0.97911
560.6	0.9733
560.8	0.96758
561	0.96269
561.2	0.96065
561.4	0.96142
561.6	0.96365
561.8	0.96879
562	0.9747
562.2	0.97994
562.4	0.98455
562.6	0.9862
562.8	0.98403
563	0.98041
563.2	0.97383
563.4	0.96668
563.6	0.9593
563.8	0.95447
564	0.95228
564.2	0.95281
564.4	0.95586
564.6	0.96149
564.8	0.96846
565	0.97544
565.2	0.98141
565.4	0.98457
565.6	0.98446
565.8	0.9814
566	0.97579
566.2	0.96774
566.4	0.95889
566.6	0.95162
566.8	0.94594
567	0.94349
567.2	0.94393
567.4	0.94831
567.6	0.95357
567.8	0.96145
568	0.9685
568.2	0.97393
568.4	0.97766
568.6	0.97866
568.8	0.97752
569	0.97294
569.2	0.96715
569.4	0.96152
569.6	0.9563
569.8	0.95348
570	0.95322
570.2	0.95662
570.4	0.96054
570.6	0.96593
570.8	0.97209
571	0.978
571.2	0.98136
571.4	0.98234
571.6	0.98172
571.8	0.97586
572	0.96903
572.2	0.96168
572.4	0.95432
572.6	0.94858
572.8	0.94487
573	0.94499
573.2	0.94708
573.4	0.95174
573.6	0.95878
573.8	0.96609
574	0.97303
574.2	0.97731
574.4	0.98127
574.6	0.98007
574.8	0.97523
575	0.96889
575.2	0.96178
575.4	0.95362
575.6	0.94849
575.8	0.94495
576	0.94348
576.2	0.94544
576.4	0.94975
576.6	0.95534
576.8	0.96249
577	0.96916
577.2	0.97401
577.4	0.97654
577.6	0.97618
577.8	0.97261
578	0.96648
578.2	0.96077
578.4	0.95378
578.6	0.94825
578.8	0.94396
579	0.9431
579.2	0.94516
579.4	0.94952
579.6	0.95608
579.8	0.96376
580	0.97175
580.2	0.97686
580.4	0.98046
580.6	0.98033
580.8	0.97711
581	0.97152
581.2	0.96293
581.4	0.95364
581.6	0.94536
581.8	0.93841
582	0.93462
582.2	0.93424
582.4	0.9362
582.6	0.94168
582.8	0.94893
583	0.95749
583.2	0.96539
583.4	0.97356
583.6	0.97697
583.8	0.9782
584	0.97637
584.2	0.97133
584.4	0.96523
584.6	0.95723
584.8	0.94891
585	0.94262
585.2	0.9389
585.4	0.9381
585.6	0.94049
585.8	0.94676
586	0.95443
586.2	0.96363
586.4	0.97142
586.6	0.97817
586.8	0.98272
587	0.98358
587.2	0.98114
587.4	0.97523
587.6	0.96801
587.8	0.95974
588	0.95174
588.2	0.94472
588.4	0.94096
588.6	0.94034
588.8	0.94223
589	0.94745
589.2	0.95496
589.4	0.96335
589.6	0.97216
589.8	0.97925
590	0.98458
590.2	0.98562
590.4	0.98257
590.6	0.97623
590.8	0.96699
591	0.95588
591.2	0.94496
591.4	0.93656
591.6	0.92821
591.8	0.92345
592	0.92206
592.2	0.92508
592.4	0.93149
592.6	0.93978
592.8	0.95188
593	0.96216
593.2	0.97195
593.4	0.97923
593.6	0.98394
593.8	0.98459
594	0.98207
594.2	0.97751
594.4	0.9697
594.6	0.96242
594.8	0.95493
595	0.94962
595.2	0.94701
595.4	0.94658
595.6	0.94934
595.8	0.95392
596	0.96074
596.2	0.96798
596.4	0.9752
596.6	0.98103
596.8	0.98449
597	0.98597
597.2	0.98332
597.4	0.97883
597.6	0.97262
597.8	0.96577
598	0.95886
598.2	0.9531
598.4	0.94929
598.6	0.94764
598.8	0.94994
599	0.95386
599.2	0.95978
599.4	0.96673
599.6	0.97363
599.8	0.97839
600	0.98323
600.2	0.98493
600.4	0.9838
600.6	0.97956
600.8	0.97386
601	0.96604
601.2	0.95673
601.4	0.94977
601.6	0.9438
601.8	0.93991
602	0.93921
602.2	0.94056
602.4	0.94552
602.6	0.95067
602.8	0.9586
603	0.96664
603.2	0.97447
603.4	0.98093
603.6	0.98462
603.8	0.98617
604	0.98284
604.2	0.98056
604.4	0.97441
604.6	0.96702
604.8	0.95974
605	0.95406
605.2	0.94993
605.4	0.94724
605.6	0.94885
605.8	0.952
606	0.9577
606.2	0.96427
606.4	0.97071
606.6	0.97766
606.8	0.98224
607	0.98598
607.2	0.98584
607.4	0.9832
607.6	0.97846
607.8	0.97169
608	0.9639
608.2	0.95667
608.4	0.95043
608.6	0.9452
608.8	0.94345
609	0.94366
609.2	0.94635
609.4	0.95179
609.6	0.95812
609.8	0.96535
610	0.97333
610.2	0.97996
610.4	0.98503
610.6	0.98637
610.8	0.98554
611	0.98122
611.2	0.97482
611.4	0.96617
611.6	0.9579
611.8	0.94912
612	0.94167
612.2	0.93744
612.4	0.93557
612.6	0.93569
612.8	0.93924
613	0.94489
613.2	0.95204
613.4	0.96079
613.6	0.96957
613.8	0.97733
614	0.98324
614.2	0.98624
614.4	0.98655
614.6	0.9836
614.8	0.97902
615	0.97237
615.2	0.96517
615.4	0.95903
615.6	0.9534
615.8	0.94926
616	0.94757
616.2	0.94808
616.4	0.95115
616.6	0.95615
616.8	0.9625
617	0.96906
617.2	0.97587
617.4	0.98204
617.6	0.98604
617.8	0.98739
618	0.98595
618.2	0.9821
618.4	0.97552
618.6	0.96816
618.8	0.96071
619	0.95369
619.2	0.94836
619.4	0.94491
619.6	0.94395
619.8	0.94485
620	0.94901
620.2	0.95441
620.4	0.96139
620.6	0.96889
620.8	0.97604
621	0.98314
621.2	0.98605
621.4	0.98738
621.6	0.98629
621.8	0.98213
622	0.97547
622.2	0.96696
622.4	0.9598
622.6	0.95016
622.8	0.9438
623	0.93825
623.2	0.93499
623.4	0.93482
623.6	0.9374
623.8	0.94356
624	0.94932
624.2	0.95725
624.4	0.96592
624.6	0.9742
624.8	0.98064
625	0.98524
625.2	0.99008
625.4	0.9873
625.6	0.98365
625.8	0.97862
626	0.97203
626.2	0.96463
626.4	0.95882
626.6	0.95625
626.8	0.94985
627	0.94866
627.2	0.94919
627.4	0.9524
627.6	0.95708
627.8	0.96394
628	0.97215
628.2	0.97565
628.4	0.98117
628.6	0.98576
628.8	0.98847
629	0.98797
629.2	0.98601
629.4	0.98326
629.6	0.97534
629.8	0.96813
630	0.96285
630.2	0.9579
630.4	0.95385
630.6	0.9519
630.8	0.95444
631	0.95532
631.2	0.95901
631.4	0.96422
631.6	0.97064
631.8	0.97666
632	0.98286
632.2	0.98775
632.4	0.9886
632.6	0.98869
632.8	0.9848
633	0.97997
633.2	0.97388
633.4	0.96641
633.6	0.95957
633.8	0.95171
634	0.94529
634.2	0.94162
634.4	0.9403
634.6	0.9408
634.8	0.9436
635	0.94901
635.2	0.95435
635.4	0.96181
635.6	0.96932
635.8	0.97716
636	0.98295
636.2	0.98736
636.4	0.98935
636.6	0.98817
636.8	0.98469
637	0.98005
637.2	0.97427
637.4	0.96709
637.6	0.96078
637.8	0.95538
638	0.9516
638.2	0.94901
638.4	0.95023
638.6	0.95238
638.8	0.95593
639	0.9618
639.2	0.96796
639.4	0.97471
639.6	0.9806
639.8	0.98527
640	0.98878
640.2	0.98971
640.4	0.98823
640.6	0.98504
640.8	0.98076
641	0.97426
641.2	0.96709
641.4	0.96055
641.6	0.95489
641.8	0.95035
642	0.94794
642.2	0.94731
642.4	0.94938
642.6	0.95316
642.8	0.9586
643	0.96515
643.2	0.97209
643.4	0.97829
643.6	0.98427
643.8	0.98847
644	0.9908
644.2	0.99002
644.4	0.98695
644.6	0.98308
644.8	0.97657
645	0.96974
645.2	0.96134
645.4	0.95433
645.6	0.94834
645.8	0.94404
646	0.94142
646.2	0.9412
646.4	0.94327
646.6	0.94657
646.8	0.95232
647	0.95912
647.2	0.96609
647.4	0.9735
647.6	0.97986
647.8	0.9861
648	0.98888
648.2	0.99035
648.4	0.98988
648.6	0.98666
648.8	0.98264
649	0.97754
649.2	0.97197
649.4	0.96583
649.6	0.9615
649.8	0.95802
650	0.95635
650.2	0.95666
650.4	0.95873
650.6	0.9627
650.8	0.96697
651	0.97248
651.2	0.97787
651.4	0.98367
651.6	0.98799
651.8	0.99033
652	0.99163
652.2	0.99016
652.4	0.98773
652.6	0.98339
652.8	0.97771
653	0.97131
653.2	0.96514
653.4	0.95997
653.6	0.95475
653.8	0.9521
654	0.95066
654.2	0.95073
654.4	0.95382
654.6	0.95779
654.8	0.96407
655	0.97026
655.2	0.97688
655.4	0.98246
655.6	0.98753
655.8	0.99057
656	0.99185
656.2	0.99119
656.4	0.98726
656.6	0.98212
656.8	0.97591
657	0.96917
657.2	0.9612
657.4	0.95472
657.6	0.94916
657.8	0.94527
658	0.94276
658.2	0.9426
658.4	0.9446
658.6	0.94868
658.8	0.95391
659	0.96153
659.2	0.9679
659.4	0.97455
659.6	0.98103
659.8	0.98586
660	0.98878
660.2	0.98973
660.4	0.98831
660.6	0.98501
660.8	0.98027
661	0.97354
661.2	0.96674
661.4	0.9598
661.6	0.9531
661.8	0.94846
662	0.94528
662.2	0.94442
662.4	0.94522
662.6	0.94756
662.8	0.95153
663	0.9574
663.2	0.96412
663.4	0.97088
663.6	0.97742
663.8	0.9832
664	0.98783
664.2	0.98983
664.4	0.98983
664.6	0.9881
664.8	0.98398
665	0.97822
665.2	0.97173
665.4	0.96488
665.6	0.95773
665.8	0.95117
666	0.94642
666.2	0.94303
666.4	0.94201
666.6	0.94247
666.8	0.94572
667	0.94945
667.2	0.9551
667.4	0.96215
667.6	0.96917
667.8	0.9761
668	0.98177
668.2	0.98663
668.4	0.98945
668.6	0.98994
668.8	0.98904
669	0.98581
669.2	0.98059
669.4	0.97418
669.6	0.96773
669.8	0.96082
670	0.95487
670.2	0.94967
670.4	0.94659
670.6	0.94473
670.8	0.94447
671	0.94617
671.2	0.95042
671.4	0.95515
671.6	0.96165
671.8	0.96809
672	0.97452
672.2	0.98007
672.4	0.98504
672.6	0.98711
672.8	0.98843
673	0.98721
673.2	0.98365
673.4	0.97958
673.6	0.97364
673.8	0.9667
674	0.96006
674.2	0.9541
674.4	0.94792
674.6	0.94392
674.8	0.94198
675	0.94387
675.2	0.94733
675.4	0.95244
675.6	0.95825
675.8	0.96562
676	0.97284
676.2	0.97966
676.4	0.98526
676.6	0.98914
676.8	0.99105
677	0.99095
677.2	0.98832
677.4	0.98433
677.6	0.97905
677.8	0.97257
678	0.96509
678.2	0.95734
678.4	0.9507
678.6	0.94546
678.8	0.9418
679	0.93992
679.2	0.93933
679.4	0.9412
679.6	0.94492
679.8	0.95091
680	0.95726
680.2	0.96379
680.4	0.97095
680.6	0.97703
680.8	0.98393
681	0.98787
681.2	0.99117
681.4	0.99127
681.6	0.98948
681.8	0.98566
682	0.98098
682.2	0.97571
682.4	0.96863
682.6	0.96055
682.8	0.95538
683	0.95036
683.2	0.9457
683.4	0.94373
683.6	0.94328
683.8	0.94394
684	0.94722
684.2	0.95188
684.4	0.9577
684.6	0.96353
684.8	0.97039
685	0.97684
685.2	0.98314
685.4	0.98815
685.6	0.99146
685.8	0.99285
686	0.9926
686.2	0.98938
686.4	0.98716
686.6	0.98257
686.8	0.97677
687	0.97169
687.2	0.96542
687.4	0.96201
687.6	0.95833
687.8	0.95604
688	0.95594
688.2	0.95725
688.4	0.95896
688.6	0.96257
688.8	0.96793
689	0.97252
689.2	0.97799
689.4	0.98323
689.6	0.98789
689.8	0.99076
690	0.99268
690.2	0.99267
690.4	0.99162
690.6	0.98796
690.8	0.98317
691	0.97774
691.2	0.97151
691.4	0.96532
691.6	0.95971
691.8	0.95418
692	0.94986
692.2	0.9473
692.4	0.94607
692.6	0.94686
692.8	0.94864
693	0.95233
693.2	0.95734
693.4	0.96296
693.6	0.96886
693.8	0.976
694	0.98084
694.2	0.9862
694.4	0.99046
694.6	0.99236
694.8	0.99269
695	0.99046
695.2	0.98878
695.4	0.98329
695.6	0.97856
695.8	0.97348
696	0.96716
696.2	0.9613
696.4	0.95612
696.6	0.9532
696.8	0.95022
697	0.94896
697.2	0.94961
697.4	0.95217
697.6	0.95577
697.8	0.96076
698	0.96609
698.2	0.97174
698.4	0.97795
698.6	0.9832
698.8	0.98776
699	0.99073
699.2	0.99263
699.4	0.99287
699.6	0.99124
699.8	0.98901
700	0.98447
700.2	0.97963
700.4	0.97477
700.6	0.96869
700.8	0.96377
701	0.95906
701.2	0.95565
701.4	0.95405
701.6	0.95359
701.8	0.95419
702	0.95652
702.2	0.95947
702.4	0.96489
702.6	0.96986
702.8	0.97523
703	0.98073
703.2	0.98486
703.4	0.98873
703.6	0.99062
703.8	0.99241
704	0.99165
704.2	0.98868
704.4	0.985
704.6	0.98039
704.8	0.97455
705	0.96908
705.2	0.96219
705.4	0.95497
705.6	0.95058
705.8	0.94678
706	0.94436
706.2	0.94325
706.4	0.94336
706.6	0.94546
706.8	0.94839
707	0.95386
707.2	0.95924
707.4	0.9649
707.6	0.97073
707.8	0.97711
708	0.98212
708.2	0.98668
708.4	0.98972
708.6	0.99048
708.8	0.99058
709	0.98787
709.2	0.98384
709.4	0.97881
709.6	0.9742
709.8	0.96816
710	0.96292
710.2	0.95748
710.4	0.9525
710.6	0.94894
710.8	0.94711
711	0.94668
711.2	0.94774
711.4	0.95055
711.6	0.95383
711.8	0.95845
712	0.96383
712.2	0.96956
712.4	0.97594
712.6	0.98115
712.8	0.98541
713	0.98836
713.2	0.99023
713.4	0.9906
713.6	0.98926
713.8	0.986
714	0.98214
714.2	0.97719
714.4	0.9713
714.6	0.9649
714.8	0.95943
715	0.95479
715.2	0.9501
715.4	0.94695
715.6	0.94571
715.8	0.94576
716	0.94735
716.2	0.95029
716.4	0.95449
716.6	0.95946
716.8	0.96508
717	0.97136
717.2	0.97723
717.4	0.98176
717.6	0.98526
717.8	0.98858
718	0.9888
718.2	0.98848
718.4	0.98553
718.6	0.98152
718.8	0.97662
719	0.97091
719.2	0.96402
719.4	0.95627
719.6	0.95001
719.8	0.94327
720	0.94013
720.2	0.93591
720.4	0.93461
720.6	0.93439
720.8	0.93653
721	0.94026
721.2	0.94583
721.4	0.95102
721.6	0.95798
721.8	0.96444
722	0.97233
722.2	0.97913
722.4	0.98408
722.6	0.98829
722.8	0.98939
723	0.98872
723.2	0.98688
723.4	0.98254
723.6	0.97645
723.8	0.96896
724	0.96064
724.2	0.95117
724.4	0.94235
724.6	0.9341
724.8	0.92675
725	0.9211
725.2	0.91619
725.4	0.91466
725.6	0.91433
725.8	0.91624
726	0.92123
726.2	0.92597
726.4	0.93307
726.6	0.94127
726.8	0.94903
727	0.95813
727.2	0.9662
727.4	0.97386
727.6	0.97901
727.8	0.98264
728	0.9838
728.2	0.98221
728.4	0.97963
728.6	0.97388
728.8	0.96585
729	0.95808
729.2	0.94925
729.4	0.93919
729.6	0.93081
729.8	0.9234
730	0.9159
730.2	0.9111
730.4	0.90875
730.6	0.90775
730.8	0.90909
731	0.91206
731.2	0.91646
731.4	0.92483
731.6	0.93264
731.8	0.94187
732	0.95033
732.2	0.95944
732.4	0.96736
732.6	0.97275
732.8	0.97922
733	0.9811
733.2	0.98142
733.4	0.97882
733.6	0.97446
733.8	0.96652
734	0.95824
734.2	0.94848
734.4	0.9381
734.6	0.92847
734.8	0.91902
735	0.91117
735.2	0.90424
735.4	0.89959
735.6	0.89671
735.8	0.89645
736	0.89839
736.2	0.90166
736.4	0.90775
736.6	0.91527
736.8	0.92377
737	0.93296
737.2	0.94341
737.4	0.953
737.6	0.96224
737.8	0.97011
738	0.97566
738.2	0.97906
738.4	0.98002
738.6	0.97863
738.8	0.97403
739	0.96811
739.2	0.9599
739.4	0.95065
739.6	0.94106
739.8	0.92956
740	0.91911
740.2	0.91178
740.4	0.90569
740.6	0.90191
740.8	0.89981
741	0.89986
741.2	0.90241
741.4	0.9066
741.6	0.91237
741.8	0.91911
742	0.9279
742.2	0.93735
742.4	0.94643
742.6	0.95507
742.8	0.96224
743	0.96835
743.2	0.97293
743.4	0.97462
743.6	0.97339
743.8	0.96929
744	0.9643
744.2	0.95698
744.4	0.94733
744.6	0.93678
744.8	0.92702
745	0.91708
745.2	0.90744
745.4	0.89957
745.6	0.89305
745.8	0.88836
746	0.88571
746.2	0.88593
746.4	0.88764
746.6	0.89149
746.8	0.89762
747	0.90599
747.2	0.91385
747.4	0.92422
747.6	0.93459
747.8	0.94397
748	0.95368
748.2	0.96104
748.4	0.96691
748.6	0.97048
748.8	0.97104
749	0.96944
749.2	0.96547
749.4	0.95878
749.6	0.94964
749.8	0.93935
750	0.9287
750.2	0.91809
750.4	0.90747
750.6	0.8978
750.8	0.88947
751	0.88283
751.2	0.87808
751.4	0.87612
751.6	0.87611
751.8	0.8782
752	0.88257
752.2	0.8879
752.4	0.89505
752.6	0.90486
752.8	0.91562
753	0.92614
753.2	0.93719
753.4	0.9484
753.6	0.95687
753.8	0.96431
754	0.97064
754.2	0.97363
754.4	0.9746
754.6	0.97285
754.8	0.96839
755	0.96323
755.2	0.95544
755.4	0.94644
755.6	0.93756
755.8	0.92895
756	0.92088
756.2	0.91377
756.4	0.90703
756.6	0.90265
756.8	0.89991
757	0.89854
757.2	0.90001
757.4	0.90287
757.6	0.90796
757.8	0.91384
758	0.9209
758.2	0.92914
758.4	0.93728
758.6	0.9452
758.8	0.95213
759	0.9593
759.2	0.96375
759.4	0.96624
759.6	0.96704
759.8	0.96502
760	0.96159
760.2	0.95584
760.4	0.94834
760.6	0.93919
760.8	0.92952
761	0.92038
761.2	0.91106
761.4	0.90282
761.6	0.89466
761.8	0.88876
762	0.88409
762.2	0.88127
762.4	0.88062
762.6	0.88092
762.8	0.88421
763	0.88861
763.2	0.89514
763.4	0.90182
763.6	0.91104
763.8	0.91986
764	0.92899
764.2	0.93713
764.4	0.94524
764.6	0.95152
764.8	0.95577
765	0.95868
765.2	0.95865
765.4	0.95675
765.6	0.95338
765.8	0.94657
766	0.94049
766.2	0.93014
766.4	0.92209
766.6	0.91302
766.8	0.90438
767	0.89672
767.2	0.88912
767.4	0.88409
767.6	0.88088
767.8	0.87803
768	0.87847
768.2	0.88006
768.4	0.88356
768.6	0.88852
768.8	0.89469
769	0.90262
769.2	0.91122
769.4	0.92065
769.6	0.93001
769.8	0.93797
770	0.94596
770.2	0.95262
770.4	0.95801
770.6	0.96076
770.8	0.96158
771	0.96072
771.2	0.95813
771.4	0.95355
771.6	0.9465
771.8	0.93951
772	0.93181
772.2	0.92333
772.4	0.91548
772.6	0.90869
772.8	0.90202
773	0.89709
773.2	0.89372
773.4	0.89154
773.6	0.89156
773.8	0.89271
774	0.89527
774.2	0.9006
774.4	0.90597
774.6	0.9139
774.8	0.92027
775	0.92776
775.2	0.93565
775.4	0.94314
775.6	0.94883
775.8	0.95408
776	0.95643
776.2	0.95755
776.4	0.9567
776.6	0.95436
776.8	0.9501
777	0.94287
777.2	0.93523
777.4	0.9268
777.6	0.91777
777.8	0.90862
778	0.90084
778.2	0.89248
778.4	0.88462
778.6	0.87921
778.8	0.87499
779	0.87292
779.2	0.87257
779.4	0.87339
779.6	0.87576
779.8	0.88013
780	0.88597
780.2	0.893
780.4	0.90124
780.6	0.90943
780.8	0.91795
781	0.92629
781.2	0.93405
781.4	0.94096
781.6	0.94708
781.8	0.95088
782	0.95208
782.2	0.95218
782.4	0.94983
782.6	0.94642
782.8	0.94148
783	0.93416
783.2	0.92665
783.4	0.91849
783.6	0.91012
783.8	0.90189
784	0.89374
784.2	0.88762
784.4	0.88182
784.6	0.8784
784.8	0.87613
785	0.8756
785.2	0.87571
785.4	0.8775
785.6	0.88116
785.8	0.88665
786	0.89248
786.2	0.89954
786.4	0.90746
786.6	0.91561
786.8	0.92346
787	0.93122
787.2	0.93671
787.4	0.94195
787.6	0.94654
787.8	0.94864
788	0.94937
788.2	0.94809
788.4	0.94505
788.6	0.94139
788.8	0.93572
789	0.92955
789.2	0.92268
789.4	0.91675
789.6	0.90971
789.8	0.90352
790	0.898
790.2	0.89346
790.4	0.89038
790.6	0.88864
790.8	0.88814
791	0.88865
791.2	0.89141
791.4	0.89478
791.6	0.89871
791.8	0.90431
792	0.91093
792.2	0.91752
792.4	0.92388
792.6	0.9301
792.8	0.93584
793	0.94086
793.2	0.94457
793.4	0.94655
793.6	0.94717
793.8	0.94768
794	0.94464
794.2	0.94118
794.4	0.93587
794.6	0.9301
794.8	0.92348
795	0.91617
795.2	0.90902
795.4	0.90218
795.6	0.89615
795.8	0.89077
796	0.88577
796.2	0.88308
796.4	0.88073
796.6	0.87978
796.8	0.8803
797	0.87955
797.2	0.88099
797.4	0.8839
797.6	0.88823
797.8	0.89257
798	0.89849
798.2	0.90531
798.4	0.91137
798.6	0.91791
798.8	0.92561
799	0.93126
799.2	0.93587
799.4	0.93952
799.6	0.94176
799.8	0.94261
800	0.94142
800.2	0.93926
800.4	0.93462
800.6	0.9297
800.8	0.92314
801	0.91508
801.2	0.90753
801.4	0.89964
801.6	0.89246
801.8	0.88537
802	0.87945
802.2	0.87358
802.4	0.86996
802.6	0.8674
802.8	0.86541
803	0.86612
803.2	0.86737
803.4	0.86987
803.6	0.87442
803.8	0.87963
804	0.88651
804.2	0.89379
804.4	0.9005
804.6	0.90796
804.8	0.91538
805	0.92225
805.2	0.92934
805.4	0.9341
805.6	0.93874
805.8	0.94123
806	0.94181
806.2	0.941
806.4	0.93938
806.6	0.93636
806.8	0.93117
807	0.92625
807.2	0.91935
807.4	0.91329
807.6	0.90573
807.8	0.89888
808	0.89331
808.2	0.88779
808.4	0.88262
808.6	0.87957
808.8	0.87748
809	0.87597
809.2	0.87676
809.4	0.87776
809.6	0.87939
809.8	0.88335
810	0.88732
810.2	0.89239
810.4	0.89752
810.6	0.90241
810.8	0.90843
811	0.91384
811.2	0.91838
811.4	0.9226
811.6	0.92515
811.8	0.92765
812	0.92877
812.2	0.92805
812.4	0.92554
812.6	0.92279
812.8	0.91956
813	0.9157
813.2	0.91048
813.4	0.90437
813.6	0.89908
813.8	0.89453
814	0.88902
814.2	0.88472
814.4	0.8805
814.6	0.87809
814.8	0.87698
815	0.87518
815.2	0.87608
815.4	0.87625
815.6	0.87876
815.8	0.88187
816	0.88547
816.2	0.88935
816.4	0.89453
816.6	0.8997
816.8	0.90448
817	0.90905
817.2	0.91312
817.4	0.91587
817.6	0.91913
817.8	0.91941
818	0.91963
818.2	0.91823
818.4	0.9161
818.6	0.91349
818.8	0.90951
819	0.90274
819.2	0.89801
819.4	0.89252
819.6	0.88656
819.8	0.87957
820	0.87412
820.2	0.8694
820.4	0.86496
820.6	0.86191
820.8	0.85923
821	0.85818
821.2	0.85848
821.4	0.85933
821.6	0.86166
821.8	0.86455
822	0.86871
822.2	0.8745
822.4	0.88071
822.6	0.88749
822.8	0.89254
823	0.90027
823.2	0.90666
823.4	0.91257
823.6	0.91865
823.8	0.92328
824	0.92632
824.2	0.92772
824.4	0.92956
824.6	0.92852
824.8	0.92665
825	0.92281
825.2	0.91796
825.4	0.91286
825.6	0.90641
825.8	0.89943
826	0.89263
826.2	0.88618
826.4	0.87908
826.6	0.87293
826.8	0.86762
827	0.86372
827.2	0.8603
827.4	0.85819
827.6	0.85633
827.8	0.85635
828	0.8574
828.2	0.85933
828.4	0.86204
828.6	0.86653
828.8	0.86998
829	0.87578
829.2	0.88245
829.4	0.88775
829.6	0.8928
829.8	0.89845
830	0.90359
830.2	0.90802
830.4	0.91138
830.6	0.91431
830.8	0.91524
831	0.91472
831.2	0.91367
831.4	0.91046
831.6	0.90639
831.8	0.9018
832	0.89659
832.2	0.89084
832.4	0.88412
832.6	0.87776
832.8	0.87135
833	0.86614
833.2	0.85971
833.4	0.85556
833.6	0.85167
833.8	0.8485
834	0.84692
834.2	0.84621
834.4	0.84745
834.6	0.84893
834.8	0.85122
835	0.85511
835.2	0.85991
835.4	0.8648
835.6	0.87045
835.8	0.87651
836	0.88298
836.2	0.89084
836.4	0.89741
836.6	0.90215
836.8	0.9082
837	0.91228
837.2	0.91542
837.4	0.91755
837.6	0.91786
837.8	0.91734
838	0.91574
838.2	0.91248
838.4	0.90726
838.6	0.9014
838.8	0.89556
839	0.88803
839.2	0.88074
839.4	0.87364
839.6	0.86571
839.8	0.85867
840	0.85231
840.2	0.84646
840.4	0.84134
840.6	0.83916
840.8	0.83566
841	0.83391
841.2	0.83379
841.4	0.83434
841.6	0.83655
841.8	0.84032
842	0.84484
842.2	0.84966
842.4	0.85679
842.6	0.86412
842.8	0.87097
843	0.87963
843.2	0.88733
843.4	0.89586
843.6	0.90379
843.8	0.91139
844	0.91754
844.2	0.9232
844.4	0.92725
844.6	0.93129
844.8	0.93215
845	0.93344
845.2	0.9321
845.4	0.92912
845.6	0.92529
845.8	0.92142
846	0.91583
846.2	0.91018
846.4	0.90357
846.6	0.89777
846.8	0.89206
847	0.88539
847.2	0.88012
847.4	0.87573
847.6	0.8718
847.8	0.86852
848	0.86587
848.2	0.86527
848.4	0.86495
848.6	0.86562
848.8	0.86682
849	0.86927
849.2	0.87223
849.4	0.87564
849.6	0.88055
849.8	0.88516
850	0.8898
850.2	0.89461
850.4	0.8993
850.6	0.90363
850.8	0.90685
851	0.91009
851.2	0.91144
851.4	0.91346
851.6	0.91373
851.8	0.91293
852	0.91223
852.2	0.91003
852.4	0.90669
852.6	0.90305
852.8	0.89907
853	0.89413
853.2	0.88956
853.4	0.88467
853.6	0.87899
853.8	0.87468
854	0.87092
854.2	0.86699
854.4	0.86439
854.6	0.86225
854.8	0.86084
855	0.86034
855.2	0.85959
855.4	0.86087
855.6	0.86314
855.8	0.86561
856	0.86897
856.2	0.87278
856.4	0.8772
856.6	0.88059
856.8	0.88525
857	0.8887
857.2	0.89247
857.4	0.89661
857.6	0.89893
857.8	0.90008
858	0.90252
858.2	0.90329
858.4	0.902
858.6	0.9009
858.8	0.89815
859	0.89538
859.2	0.89211
859.4	0.88863
859.6	0.88499
859.8	0.88012
860	0.87648
860.2	0.8727
860.4	0.86918
860.6	0.86614
860.8	0.8641
861	0.86183
861.2	0.86129
861.4	0.86108
861.6	0.86146
861.8	0.86288
862	0.86485
862.2	0.86749
862.4	0.86971
862.6	0.87458
862.8	0.87878
863	0.8827
863.2	0.88575
863.4	0.88917
863.6	0.89196
863.8	0.89379
864	0.89586
864.2	0.89577
864.4	0.89452
864.6	0.89256
864.8	0.89025
865	0.88642
865.2	0.88061
865.4	0.87473
865.6	0.8683
865.8	0.86183
866	0.85486
866.2	0.84718
866.4	0.83982
866.6	0.83304
866.8	0.82591
867	0.82094
867.2	0.81588
867.4	0.8114
867.6	0.80819
867.8	0.80563
868	0.80464
868.2	0.8048
868.4	0.80475
868.6	0.80641
868.8	0.80902
869	0.8116
869.2	0.81605
869.4	0.8199
869.6	0.82381
869.8	0.82805
870	0.83152
870.2	0.83516
870.4	0.83956
870.6	0.84281
870.8	0.84487
871	0.84578
871.2	0.84627
871.4	0.84571
871.6	0.84399
871.8	0.84113
872	0.8381
872.2	0.83448
872.4	0.82988
872.6	0.82466
872.8	0.81907
873	0.81496
873.2	0.81032
873.4	0.80552
873.6	0.80032
873.8	0.7973
874	0.79392
874.2	0.79125
874.4	0.7897
874.6	0.78898
874.8	0.78766
875	0.78812
875.2	0.78855
875.4	0.79002
875.6	0.79109
875.8	0.79308
876	0.79425
876.2	0.79516
876.4	0.79619
876.6	0.79777
876.8	0.79805
877	0.79823
877.2	0.79722
877.4	0.79576
877.6	0.79456
877.8	0.79105
878	0.7888
878.2	0.78479
878.4	0.78161
878.6	0.77815
878.8	0.77393
879	0.77009
879.2	0.76572
879.4	0.76173
879.6	0.75886
879.8	0.75682
880	0.75483
880.2	0.75348
880.4	0.75256
880.6	0.75212
880.8	0.7527
881	0.7539
881.2	0.7557
881.4	0.75757
881.6	0.75941
881.8	0.76197
882	0.76397
882.2	0.76699
882.4	0.76933
882.6	0.77069
882.8	0.77146
883	0.7723
883.2	0.77273
883.4	0.77223
883.6	0.77024
883.8	0.76773
884	0.76505
884.2	0.76111
884.4	0.75724
884.6	0.75242
884.8	0.74763
885	0.7424
885.2	0.73847
885.4	0.73357
885.6	0.72922
885.8	0.72466
886	0.72079
886.2	0.71773
886.4	0.71548
886.6	0.71293
886.8	0.71117
887	0.70986
887.2	0.7095
887.4	0.71001
887.6	0.71031
887.8	0.71043
888	0.71178
888.2	0.71225
888.4	0.71356
888.6	0.71413
888.8	0.71514
889	0.71571
889.2	0.71649
889.4	0.71651
889.6	0.71639
889.8	0.71613
890	0.71604
890.2	0.71636
890.4	0.71564
890.6	0.71515
890.8	0.71552
891	0.71539
891.2	0.71559
891.4	0.71645
891.6	0.71721
891.8	0.71885
892	0.7211
892.2	0.72268
892.4	0.72503
892.6	0.72639
892.8	0.72831
893	0.73
893.2	0.73148
893.4	0.7317
893.6	0.73158
893.8	0.73027
894	0.72806
894.2	0.72559
894.4	0.7213
894.6	0.71583
894.8	0.70969
895	0.70283
895.2	0.6954
895.4	0.68645
895.6	0.67802
895.8	0.66957
896	0.66201
896.2	0.65441
896.4	0.64752
896.6	0.64115
896.8	0.63683
897	0.63295
897.2	0.63013
897.4	0.62931
897.6	0.62904
897.8	0.63112
898	0.63431
898.2	0.63824
898.4	0.64286
898.6	0.64893
898.8	0.65508
899	0.6614
899.2	0.6682
899.4	0.67431
899.6	0.67931
899.8	0.68358
900	0.6871
900.2	0.68782
900.4	0.68688
900.6	0.68456
900.8	0.67978
901	0.67296
901.2	0.66576
901.4	0.65684
901.6	0.64735
901.8	0.63739
902	0.62787
902.2	0.61892
902.4	0.61044
902.6	0.60352
902.8	0.5981
903	0.59365
903.2	0.59145
903.4	0.59063
903.6	0.59221
903.8	0.59523
904	0.59949
904.2	0.60594
904.4	0.61299
904.6	0.62065
904.8	0.62952
905	0.63837
905.2	0.64709
905.4	0.65421
905.6	0.65994
905.8	0.66346
906	0.66384
906.2	0.66263
906.4	0.65771
906.6	0.65037
906.8	0.64055
907	0.62963
907.2	0.6166
907.4	0.60381
907.6	0.59143
907.8	0.57934
908	0.56876
908.2	0.55876
908.4	0.55173
908.6	0.54669
908.8	0.54464
909	0.54466
909.2	0.54784
909.4	0.55389
909.6	0.56236
909.8	0.57348
910	0.58712
910.2	0.60278
910.4	0.61945
910.6	0.63802
910.8	0.65539
911	0.67134
911.2	0.68479
911.4	0.69458
911.6	0.69816
911.8	0.69634
912	0.68885
912.2	0.67556
912.4	0.6576
912.6	0.63718
912.8	0.61484
913	0.59202
913.2	0.57007
913.4	0.54955
913.6	0.53189
913.8	0.51761
914	0.50675
914.2	0.49947
914.4	0.49613
914.6	0.49616
914.8	0.49989
915	0.50788
915.2	0.51952
915.4	0.53566
915.6	0.55454
915.8	0.57696
916	0.60024
916.2	0.62412
916.4	0.64591
916.6	0.66303
916.8	0.67399
917	0.67625
917.2	0.66904
917.4	0.65297
917.6	0.62866
917.8	0.59978
918	0.5683
918.2	0.5364
918.4	0.50628
918.6	0.4795
918.8	0.4564
919	0.4384
919.2	0.42459
919.4	0.41541
919.6	0.41136
919.8	0.41072
920	0.41668
920.2	0.42704
920.4	0.44254
920.6	0.46312
920.8	0.48864
921	0.51874
921.2	0.5514
921.4	0.58363
921.6	0.61337
921.8	0.63474
922	0.64482
922.2	0.63904
922.4	0.61956
922.6	0.58842
922.8	0.55072
923	0.51109
923.2	0.47258
923.4	0.43899
923.6	0.41077
923.8	0.38918
924	0.37343
924.2	0.36449
924.4	0.36217
924.6	0.36659
924.8	0.37883
925	0.39847
925.2	0.42818
925.4	0.46853
925.6	0.52008
925.8	0.5825
926	0.65144
926.2	0.71564
926.4	0.75902
926.6	0.76112
926.8	0.72151
927	0.64871
927.2	0.56317
927.4	0.48143
927.6	0.41136
927.8	0.35609
928	0.31335
928.2	0.2825
928.4	0.26162
928.6	0.24832
928.8	0.24317
929	0.24482
929.2	0.25457
929.4	0.27321
929.6	0.30305
929.8	0.34687
930	0.40765
930.2	0.48547
930.4	0.57162
930.6	0.63707
930.8	0.64736
931	0.58788
931.2	0.49046
931.4	0.3919
931.6	0.312
931.8	0.25389
932	0.21407
932.2	0.18712
932.4	0.17143
932.6	0.16321
932.8	0.16391
933	0.17261
933.2	0.19226
933.4	0.2276
933.6	0.29066
933.8	0.39661
934	0.55779
934.2	0.7176
934.4	0.72381
934.6	0.5455
934.8	0.35899
935	0.23796
935.2	0.169
935.4	0.13069
935.6	0.10988
935.8	0.09985
936	0.09891
936.2	0.10747
936.4	0.13176
936.6	0.18728
936.8	0.32703
937	0.61309
937.2	0.66626
937.4	0.35823
937.6	0.15528
937.8	0.07961
938	0.05086
938.2	0.03812
938.4	0.03276
938.6	0.03278
938.8	0.03948
939	0.06971
939.2	0.20602
939.4	0.25422
939.6	0.08006
939.8	0.01935
940	0.00881
940.2	0.00579
940.4	0.0045
940.6	0.00401
940.8	0.00375
941	0.00396
941.2	0.00669
941.4	0.01272
941.6	0.00577
941.8	0.00265
942	0.00227
942.2	0.00216
942.4	0.00212
942.6	0.00209
942.8	0.00133
943	0.00061943
943.2	0.00056111
943.4	0.00057503
943.6	0.00055642
943.8	0.00056027
944	0.00055226
944.2	0.00054414
944.4	0.00054413
944.6	0.00051757
944.8	0.00052003
945	0.00050075
945.2	0.00048403
945.4	0.00050494
945.6	0.00049339
945.8	0.00049168
946	0.00045734
946.2	0.00045993
946.4	0.00048202
946.6	0.00046469
946.8	0.00047099
947	0.00041705
947.2	0.00044297
947.4	0.0004598
947.6	0.00041945
947.8	0.00043723
948	0.00040266
948.2	0.00043029
948.4	0.0004648
948.6	0.00041226
948.8	0.00040164
949	0.00039001
949.2	0.00039223
949.4	0.00040294
949.6	0.00040249
949.8	0.00041473
950	0.00040115
950.2	0.00037161
950.4	0.00036649
950.6	0.00035323
950.8	0.00036134
951	0.00036387
951.2	0.00037257
951.4	0.00035152
951.6	0.0003754
951.8	0.00035238
952	0.0003688
952.2	0.00034035
952.4	0.00033574
952.6	0.00033679
952.8	0.00034592
953	0.0003393
953.2	0.00034449
953.4	0.00034557
953.6	0.00030647
953.8	0.00032788
954	0.00034395
954.2	0.00030448
954.4	0.00033683
954.6	0.00032895
954.8	0.00033263
955	0.00032052
955.2	0.00032984
955.4	0.00028591
955.6	0.00031987
955.8	0.00030713
956	0.00034448
956.2	0.0003327
956.4	0.00033318
956.6	0.00031855
956.8	0.00032185
957	0.00033408
957.2	0.00032092
957.4	0.00032331
957.6	0.00031661
957.8	0.00032675
958	0.0002954
958.2	0.00028767
958.4	0.00030556
958.6	0.00030577
958.8	0.00030645
959	0.00028462
959.2	0.00029118
959.4	0.00030657
959.6	0.00030141
959.8	0.00031315
960	0.00029622
960.2	0.00032649
960.4	0.0003179
960.6	0.00028948
960.8	0.00032427
961	0.00026713
961.2	0.00029074
961.4	0.00030275
961.6	0.00029344
961.8	0.00029868
962	0.00026929
962.2	0.00028771
962.4	0.00028983
962.6	0.00027645
962.8	0.0002627
963	0.00025117
963.2	0.00028252
963.4	0.00028349
963.6	0.00028723
963.8	0.00026678
964	0.00027486
964.2	0.00027804
964.4	0.00028375
964.6	0.0002772
964.8	0.00028673
965	0.00025397
965.2	0.00029774
965.4	0.00029773
965.6	0.00028193
965.8	0.00030948
966	0.00028433
966.2	0.00029317
966.4	0.00029193
966.6	0.00028507
966.8	0.00029706
967	0.00029726
967.2	0.00029676
967.4	0.00023699
967.6	0.00029314
967.8	0.00029291
968	0.00030489
968.2	0.00026715
968.4	0.00026895
968.6	0.00028875
968.8	0.00025322
969	0.00026996
969.2	0.00029126
969.4	0.0002896
969.6	0.00026471
969.8	0.00025545
970	0.00027898
970.2	0.00029967
970.4	0.00029467
970.6	0.00030752
970.8	0.00030119
971	0.00028798
971.2	0.00024321
971.4	0.00028698
971.6	0.00022806
971.8	0.00027265
972	0.00027965
972.2	0.00029899
972.4	0.00028594
972.6	0.00027208
972.8	0.0003068
973	0.00030075
973.2	0.00029423
973.4	0.00032467
973.6	0.00029346
973.8	0.00028268
974	0.00028758
974.2	0.00030907
974.4	0.0003081
974.6	0.00029233
974.8	0.00030087
975	0.00030867
975.2	0.00036159
975.4	0.00030275
975.6	0.00029229
975.8	0.00030264
976	0.00034706
976.2	0.00030491
976.4	0.00029297
976.6	0.00030773
976.8	0.0002894
977	0.0003103
977.2	0.00031543
977.4	0.00032148
977.6	0.00034533
977.8	0.00032197
978	0.00035417
978.2	0.00026975
978.4	0.00030299
978.6	0.00029351
978.8	0.00032672
979	0.00032631
979.2	0.00032069
979.4	0.00032648
979.6	0.00029475
979.8	0.00032587
980	0.00034946
980.2	0.00031326
980.4	0.00032209
980.6	0.0002782
980.8	0.00027146
981	0.00032245
981.2	0.00026738
981.4	0.00034576
981.6	0.00037201
981.8	0.00017772
982	0.00012266
982.2	8.4651E-05
982.4	5.8422E-05
982.6	4.06E-05
982.8	3.9625E-05
983	3.8674E-05
983.2	3.7745E-05
983.4	3.6839E-05
983.6	3.5955E-05
983.8	3.5091E-05
984	3.4249E-05
984.2	3.3427E-05
984.4	3.2624E-05
984.6	3.1841E-05
984.8	3.1076E-05
985	3.033E-05
985.2	2.9602E-05
985.4	2.8891E-05
985.6	2.8197E-05
985.8	2.752E-05
986	2.686E-05
986.2	2.6215E-05
986.4	2.5585E-05
986.6	2.4748E-05
986.8	2.3681E-05
987	2.266E-05
987.2	2.1683E-05
987.4	2.0749E-05
987.6	1.9854E-05
987.8	1.8999E-05
988	1.818E-05
988.2	1.7396E-05
988.4	1.6646E-05
988.6	1.5929E-05
988.8	1.5242E-05
989	1.4585E-05
989.2	1.3956E-05
989.4	1.3355E-05
989.6	1.2779E-05
989.8	1.2228E-05
990	1.1701E-05
990.2	1.1197E-05
990.4	1.0714E-05
990.6	7.5803E-06
990.8	5.1958E-06
991	3.5613E-06
991.2	2.4411E-06
991.4	1.6732E-06
991.6	1.1468E-06
991.8	7.8608E-07
992	5.388E-07
992.2	3.6931E-07
992.4	2.5314E-07
992.6	1.7351E-07
992.8	1.1893E-07
993	8.1516E-08
993.2	5.5874E-08
993.4	3.8298E-08
993.6	2.625E-08
993.8	1.7993E-08
994	1.2333E-08
994.2	8.4532E-09
994.4	6.6628E-09
994.6	6.6965E-09
994.8	6.7304E-09
995	6.7644E-09
995.2	6.7986E-09
995.4	6.833E-09
995.6	6.8675E-09
995.8	6.9022E-09
996	6.9371E-09
996.2	6.9722E-09
996.4	7.0074E-09
996.6	7.0428E-09
996.8	7.0784E-09
997	7.1142E-09
997.2	7.1502E-09
997.4	7.1863E-09
997.6	7.2226E-09
997.8	7.2592E-09
998	7.2959E-09
998.2	7.3327E-09
998.4	7.3723E-09
998.6	7.4125E-09
998.8	7.4529E-09
999	7.4935E-09
999.2	7.5344E-09
999.4	7.5755E-09
999.6	7.6168E-09
999.8	7.6583E-09
1000	7.7001E-09
1000.2	7.7421E-09
1000.4	7.7843E-09
1000.6	7.8267E-09
1000.8	7.8694E-09
1001	7.9123E-09
1001.2	7.9555E-09
1001.4	7.9988E-09
1001.6	8.0425E-09
1001.8	8.0863E-09
1002	8.1304E-09
1002.2	8.1753E-09
1002.4	8.2217E-09
1002.6	8.2683E-09
1002.8	8.3152E-09
1003	8.3623E-09
1003.2	8.4097E-09
1003.4	8.4574E-09
1003.6	8.5054E-09
1003.8	8.5536E-09
1004	8.6021E-09
1004.2	8.6508E-09
1004.4	8.6999E-09
1004.6	8.7492E-09
1004.8	8.7988E-09
1005	8.8487E-09
1005.2	8.8989E-09
1005.4	8.9493E-09
1005.6	9.0001E-09
1005.8	9.0511E-09
1006	9.1024E-09
1006.2	8.6982E-09
1006.4	8.2193E-09
1006.6	7.7667E-09
1006.8	7.3391E-09
1007	7.2543E-09
1007.2	7.1706E-09
1007.4	7.0878E-09
1007.6	7.006E-09
1007.8	6.9251E-09
1008	6.8452E-09
1008.2	6.7661E-09
1008.4	6.688E-09
1008.6	6.6108E-09
1008.8	6.5345E-09
1009	6.4591E-09
1009.2	6.3845E-09
1009.4	6.3108E-09
1009.6	6.2379E-09
1009.8	6.1659E-09
1010	6.0947E-09
1010.2	6.0244E-09
1010.4	5.9548E-09
1010.6	5.9059E-09
1010.8	5.9422E-09
1011	5.9787E-09
1011.2	6.0154E-09
1011.4	6.0523E-09
1011.6	6.0894E-09
1011.8	6.1268E-09
1012	6.1644E-09
1012.2	6.2023E-09
1012.4	6.2403E-09
1012.6	6.2786E-09
1012.8	6.3172E-09
1013	6.356E-09
1013.2	6.395E-09
1013.4	6.4342E-09
1013.6	6.4737E-09
1013.8	6.5135E-09
1014	6.5534E-09
1014.2	6.5937E-09
1014.4	6.6341E-09
1014.6	6.6745E-09
1014.8	6.7149E-09
1015	6.7555E-09
1015.2	6.7964E-09
1015.4	6.8375E-09
1015.6	6.8789E-09
1015.8	6.9205E-09
1016	6.9624E-09
1016.2	7.0045E-09
1016.4	7.0469E-09
1016.6	7.0896E-09
1016.8	7.1325E-09
1017	7.1756E-09
1017.2	7.2191E-09
1017.4	7.2627E-09
1017.6	7.3067E-09
1017.8	7.3509E-09
1018	7.3954E-09
1018.2	7.4401E-09
1018.4	7.4859E-09
1018.6	7.5355E-09
1018.8	7.5854E-09
1019	7.6356E-09
1019.2	7.6862E-09
1019.4	7.7371E-09
1019.6	7.7883E-09
1019.8	7.8399E-09
1020	7.8918E-09
1020.2	7.944E-09
1020.4	7.9966E-09
1020.6	8.0496E-09
1020.8	8.1029E-09
1021	8.1566E-09
1021.2	8.2106E-09
1021.4	8.2649E-09
1021.6	8.3197E-09
1021.8	8.3748E-09
1022	8.4302E-09
1022.2	8.486E-09
1022.4	8.5457E-09
1022.6	8.6075E-09
1022.8	8.6698E-09
1023	8.7325E-09
1023.2	8.7956E-09
1023.4	8.8592E-09
1023.6	8.9233E-09
1023.8	8.9878E-09
1024	9.0528E-09
1024.2	9.1183E-09
1024.4	9.1843E-09
1024.6	9.2507E-09
1024.8	9.3176E-09
1025	9.385E-09
1025.2	9.4528E-09
1025.4	9.5212E-09
1025.6	9.59E-09
1025.8	9.6594E-09
1026	9.7292E-09
1026.2	1.0123E-08
1026.4	1.2045E-08
1026.6	1.4332E-08
1026.8	1.7052E-08
1027	2.0779E-08
1027.2	2.532E-08
1027.4	3.0853E-08
1027.6	3.7595E-08
1027.8	4.5811E-08
1028	5.5823E-08
1028.2	6.8022E-08
1028.4	8.2887E-08
1028.6	1.01E-07
1028.8	1.2307E-07
1029	1.4997E-07
1029.2	1.8274E-07
1029.4	2.2267E-07
1029.6	2.7134E-07
1029.8	3.3063E-07
1030	4.0289E-07
1030.2	4.9093E-07
1030.4	5.9821E-07
1030.6	7.2894E-07
1030.8	7.484E-07
1031	7.5853E-07
1031.2	7.688E-07
1031.4	7.792E-07
1031.6	7.8975E-07
1031.8	8.0044E-07
1032	8.1128E-07
1032.2	8.2226E-07
1032.4	8.3339E-07
1032.6	8.4467E-07
1032.8	8.561E-07
1033	8.6769E-07
1033.2	8.7944E-07
1033.4	8.9134E-07
1033.6	9.0341E-07
1033.8	9.1564E-07
1034	9.2803E-07
1034.2	9.4059E-07
1034.4	9.5332E-07
1034.6	9.4404E-07
1034.8	9.0816E-07
1035	8.7364E-07
1035.2	8.4043E-07
1035.4	8.0848E-07
1035.6	7.7775E-07
1035.8	7.4819E-07
1036	7.1975E-07
1036.2	6.9239E-07
1036.4	6.6607E-07
1036.6	6.4075E-07
1036.8	6.164E-07
1037	5.9297E-07
1037.2	5.7043E-07
1037.4	5.4874E-07
1037.6	5.2788E-07
1037.8	5.0782E-07
1038	4.8852E-07
1038.2	4.6995E-07
1038.4	4.5208E-07
1038.6	3.8459E-07
1038.8	3.2592E-07
1039	2.7621E-07
1039.2	2.3408E-07
1039.4	1.9837E-07
1039.6	1.6812E-07
1039.8	1.4247E-07
1040	1.2074E-07
1040.2	1.0232E-07
1040.4	8.6717E-08
1040.6	7.349E-08
1040.8	6.228E-08
1041	5.2781E-08
1041.2	4.473E-08
1041.4	3.7907E-08
1041.6	3.2125E-08
1041.8	2.7225E-08
1042	2.3072E-08
1042.2	1.9553E-08
1042.4	1.9761E-08
1042.6	2.3733E-08
1042.8	2.8504E-08
1043	3.4234E-08
1043.2	4.1116E-08
1043.4	4.9381E-08
1043.6	5.9307E-08
1043.8	7.1229E-08
1044	8.5547E-08
1044.2	1.0274E-07
1044.4	1.234E-07
1044.6	1.482E-07
1044.8	1.7799E-07
1045	2.1377E-07
1045.2	2.5675E-07
1045.4	3.0836E-07
1045.6	3.7034E-07
1045.8	4.4479E-07
1046	5.342E-07
1046.2	6.2627E-07
1046.4	4.8473E-07
1046.6	3.7517E-07
1046.8	2.9038E-07
1047	2.5596E-07
1047.2	2.2563E-07
1047.4	1.9888E-07
1047.6	1.7531E-07
1047.8	1.5453E-07
1048	1.3622E-07
1048.2	1.2007E-07
1048.4	1.0584E-07
1048.6	9.3295E-08
1048.8	8.2237E-08
1049	7.249E-08
1049.2	6.3898E-08
1049.4	5.6324E-08
1049.6	4.9648E-08
1049.8	4.3764E-08
1050	3.8577E-08
1050.2	3.4004E-08
1050.4	2.9974E-08
1050.6	2.6421E-08
1050.8	2.5677E-08
1051	2.5825E-08
1051.2	2.5973E-08
1051.4	2.6123E-08
1051.6	2.6273E-08
1051.8	2.6424E-08
1052	2.6576E-08
1052.2	2.6729E-08
1052.4	2.6882E-08
1052.6	2.7037E-08
1052.8	2.7192E-08
1053	2.7349E-08
1053.2	2.7506E-08
1053.4	2.7664E-08
1053.6	2.7823E-08
1053.8	2.7983E-08
1054	2.8144E-08
1054.2	2.8306E-08
1054.4	2.8468E-08
1054.6	2.8631E-08
1054.8	2.879E-08
1055	2.8951E-08
1055.2	2.9113E-08
1055.4	2.9275E-08
1055.6	2.9438E-08
1055.8	2.9603E-08
1056	2.9768E-08
1056.2	2.9934E-08
1056.4	3.0101E-08
1056.6	3.0269E-08
1056.8	3.0438E-08
1057	3.0608E-08
1057.2	3.0779E-08
1057.4	3.095E-08
1057.6	3.1123E-08
1057.8	3.1297E-08
1058	3.1471E-08
1058.2	3.1647E-08
1058.4	3.1824E-08
1058.6	3.6406E-08
1058.8	4.2723E-08
1059	5.0136E-08
1059.2	5.8836E-08
1059.4	6.9045E-08
1059.6	8.1025E-08
1059.8	9.5085E-08
1060	1.1158E-07
1060.2	1.3095E-07
1060.4	1.5367E-07
1060.6	1.8033E-07
1060.8	2.1162E-07
1061	2.4834E-07
1061.2	2.9143E-07
1061.4	3.42E-07
1061.6	4.0134E-07
1061.8	4.7098E-07
1062	5.5271E-07
1062.2	6.4861E-07
1062.4	6.7207E-07
1062.6	5.7998E-07
1062.8	5.0051E-07
1063	4.3193E-07
1063.2	3.7275E-07
1063.4	3.2167E-07
1063.6	2.776E-07
1063.8	2.3956E-07
1064	2.0673E-07
1064.2	1.7841E-07
1064.4	1.5396E-07
1064.6	1.3287E-07
1064.8	1.1466E-07
1065	9.8949E-08
1065.2	8.5391E-08
1065.4	7.3691E-08
1065.6	6.3593E-08
1065.8	5.488E-08
1066	4.736E-08
1066.2	4.0871E-08
1066.4	1.0578E-07
1066.6	2.7998E-07
1066.8	7.4105E-07
1067	1.4779E-06
1067.2	1.4869E-06
1067.4	1.4959E-06
1067.6	1.505E-06
1067.8	1.5142E-06
1068	1.5234E-06
1068.2	1.5327E-06
1068.4	1.542E-06
1068.6	1.5514E-06
1068.8	1.5608E-06
1069	1.5703E-06
1069.2	1.5798E-06
1069.4	1.5894E-06
1069.6	1.5991E-06
1069.8	1.6088E-06
1070	1.6186E-06
1070.2	1.6284E-06
1070.4	1.6384E-06
1070.6	1.6483E-06
1070.8	1.6572E-06
1071	1.6647E-06
1071.2	1.6723E-06
1071.4	1.6799E-06
1071.6	1.6876E-06
1071.8	1.6953E-06
1072	1.7031E-06
1072.2	1.7108E-06
1072.4	1.7186E-06
1072.6	1.7265E-06
1072.8	1.7343E-06
1073	1.7423E-06
1073.2	1.7502E-06
1073.4	1.7582E-06
1073.6	1.7662E-06
1073.8	1.7743E-06
1074	1.7824E-06
1074.2	1.7905E-06
1074.4	1.7987E-06
1074.6	1.8044E-06
1074.8	1.7573E-06
1075	1.7116E-06
1075.2	1.667E-06
1075.4	1.6235E-06
1075.6	1.5812E-06
1075.8	1.54E-06
1076	1.4999E-06
1076.2	1.4608E-06
1076.4	1.4227E-06
1076.6	1.3856E-06
1076.8	1.3495E-06
1077	1.3144E-06
1077.2	1.2801E-06
1077.4	1.2468E-06
1077.6	1.2143E-06
1077.8	1.1826E-06
1078	1.1518E-06
1078.2	1.1218E-06
1078.4	1.0926E-06
1078.6	1.0884E-06
1078.8	1.0987E-06
1079	1.1091E-06
1079.2	1.1197E-06
1079.4	1.1303E-06
1079.6	1.141E-06
1079.8	1.1518E-06
1080	1.1628E-06
1080.2	1.1738E-06
1080.4	1.1849E-06
1080.6	1.1962E-06
1080.8	1.2075E-06
1081	1.219E-06
1081.2	1.2305E-06
1081.4	1.2422E-06
1081.6	1.254E-06
1081.8	1.2659E-06
1082	1.2779E-06
1082.2	1.29E-06
1082.4	1.284E-06
1082.6	1.2173E-06
1082.8	1.1541E-06
1083	1.0942E-06
1083.2	1.0374E-06
1083.4	9.8357E-07
1083.6	9.3251E-07
1083.8	8.841E-07
1084	8.3821E-07
1084.2	7.9469E-07
1084.4	7.5344E-07
1084.6	7.1433E-07
1084.8	6.7725E-07
1085	6.4209E-07
1085.2	6.0876E-07
1085.4	5.7715E-07
1085.6	5.4719E-07
1085.8	5.1879E-07
1086	4.9186E-07
1086.2	4.6632E-07
1086.4	7.3774E-07
1086.6	1.2962E-06
1086.8	2.2774E-06
1087	3.5808E-06
1087.2	2.9068E-06
1087.4	2.3597E-06
1087.6	1.9155E-06
1087.8	1.555E-06
1088	1.2623E-06
1088.2	1.0247E-06
1088.4	8.3182E-07
1088.6	6.7525E-07
1088.8	5.4815E-07
1089	4.4498E-07
1089.2	3.6122E-07
1089.4	2.9323E-07
1089.6	2.3804E-07
1089.8	1.9323E-07
1090	1.5686E-07
1090.2	1.2734E-07
1090.4	1.0337E-07
1090.6	8.3913E-08
1090.8	7.6548E-08
1091	9.4264E-08
1091.2	1.1608E-07
1091.4	1.4294E-07
1091.6	1.7603E-07
1091.8	2.1676E-07
1092	2.6693E-07
1092.2	3.287E-07
1092.4	4.0477E-07
1092.6	4.9845E-07
1092.8	6.1381E-07
1093	7.5586E-07
1093.2	9.3079E-07
1093.4	1.1462E-06
1093.6	1.4115E-06
1093.8	1.7381E-06
1094	2.1404E-06
1094.2	2.6357E-06
1094.4	3.2457E-06
1094.6	3.9968E-06
1094.8	4.0672E-06
1095	4.0326E-06
1095.2	3.9983E-06
1095.4	3.9643E-06
1095.6	3.9306E-06
1095.8	3.8971E-06
1096	3.864E-06
1096.2	3.8311E-06
1096.4	3.7985E-06
1096.6	3.7662E-06
1096.8	3.7342E-06
1097	3.7024E-06
1097.2	3.6709E-06
1097.4	3.6397E-06
1097.6	3.6087E-06
1097.8	3.578E-06
1098	3.5476E-06
1098.2	3.5174E-06
1098.4	3.4874E-06
1098.6	3.5077E-06
1098.8	3.5801E-06
1099	3.6539E-06
1099.2	3.7293E-06
1099.4	3.8062E-06
1099.6	3.8848E-06
1099.8	3.9649E-06
1100	4.0467E-06
1100.2	4.1302E-06
1100.4	4.2154E-06
1100.6	4.3023E-06
1100.8	4.3911E-06
1101	4.4817E-06
1101.2	4.5741E-06
1101.4	4.6685E-06
1101.6	4.7648E-06
1101.8	4.8631E-06
1102	4.9634E-06
1102.2	5.0658E-06
1102.4	5.0369E-06
1102.6	4.1342E-06
1102.8	3.3933E-06
1103	2.7852E-06
1103.2	2.2861E-06
1103.4	1.8764E-06
1103.6	1.5401E-06
1103.8	1.2641E-06
1104	1.0376E-06
1104.2	8.5165E-07
1104.4	6.9902E-07
1104.6	5.7375E-07
1104.8	4.7093E-07
1105	3.8654E-07
1105.2	3.1727E-07
1105.4	2.6041E-07
1105.6	2.1374E-07
1105.8	1.7544E-07
1106	1.44E-07
1106.2	1.1819E-07
1106.4	1.3095E-07
1106.6	1.5993E-07
1106.8	1.9531E-07
1107	2.3853E-07
1107.2	2.913E-07
1107.4	3.5576E-07
1107.6	4.3447E-07
1107.8	5.306E-07
1108	6.48E-07
1108.2	7.9138E-07
1108.4	9.6648E-07
1108.6	1.1803E-06
1108.8	1.4415E-06
1109	1.7604E-06
1109.2	2.1499E-06
1109.4	2.6256E-06
1109.6	3.2065E-06
1109.8	3.916E-06
1110	4.7825E-06
1110.2	5.015E-06
1110.4	4.2039E-06
1110.6	3.524E-06
1110.8	2.9541E-06
1111	2.4763E-06
1111.2	2.0758E-06
1111.4	1.7401E-06
1111.6	1.4587E-06
1111.8	1.2228E-06
1112	1.025E-06
1112.2	8.5923E-07
1112.4	7.2027E-07
1112.6	6.0378E-07
1112.8	5.0613E-07
1113	4.2427E-07
1113.2	3.5565E-07
1113.4	2.9813E-07
1113.6	2.4992E-07
1113.8	2.095E-07
1114	1.7996E-07
1114.2	2.197E-07
1114.4	2.6822E-07
1114.6	3.2745E-07
1114.8	3.9976E-07
1115	4.8804E-07
1115.2	5.9582E-07
1115.4	7.274E-07
1115.6	8.8803E-07
1115.8	1.0841E-06
1116	1.3236E-06
1116.2	1.6158E-06
1116.4	1.9727E-06
1116.6	2.4083E-06
1116.8	2.9401E-06
1117	3.5894E-06
1117.2	4.3821E-06
1117.4	5.3498E-06
1117.6	6.5312E-06
1117.8	7.9735E-06
1118	8.4363E-06
1118.2	8.4882E-06
1118.4	8.5403E-06
1118.6	8.5928E-06
1118.8	8.6457E-06
1119	8.6988E-06
1119.2	8.7523E-06
1119.4	8.8061E-06
1119.6	8.8602E-06
1119.8	8.9147E-06
1120	8.9695E-06
1120.2	9.0246E-06
1120.4	9.0801E-06
1120.6	9.1359E-06
1120.8	9.1921E-06
1121	9.2486E-06
1121.2	9.3054E-06
1121.4	9.3627E-06
1121.6	9.4202E-06
1121.8	9.2582E-06
1122	8.8087E-06
1122.2	8.381E-06
1122.4	7.9741E-06
1122.6	7.587E-06
1122.8	7.2186E-06
